acc_x[mg],acc_y[mg],acc_z[mg]
49.411,72.406,884.938
33.944,99.073,989.376
11.753,100.734,1005.451
36.053,101.305,974.325
21.689,93.263,985.705
24.405,84.086,1031.827
42.267,70.162,1003.994
39.489,78.527,996.239
35.409,78.815,1012.960
50.542,67.388,982.276
49.672,67.393,982.380
41.156,57.304,1023.646
43.442,70.273,984.406
38.486,78.296,1003.355
41.215,61.519,997.313
43.285,61.423,1009.123
52.813,66.279,986.154
61.534,64.905,970.592
67.499,18.635,991.877
49.556,54.851,1022.297
62.055,39.759,1006.794
69.016,26.235,1013.837
51.471,48.121,1001.429
62.229,39.929,992.346
67.489,35.274,997.967
56.024,47.931,986.568
56.003,43.175,1012.006
65.808,27.855,1007.564
54.572,55.893,989.571
67.535,44.474,999.152
72.010,41.484,993.796
75.683,43.232,983.706
66.696,32.040,1000.284
62.563,37.149,997.085
61.930,36.917,974.451
50.393,39.590,1036.276
56.979,52.681,1005.825
67.498,44.581,1000.664
70.105,39.249,982.985
66.253,58.881,984.329
84.972,35.907,991.461
74.789,47.210,994.478
77.007,51.452,992.974
70.078,61.250,996.024
68.647,55.331,1003.342
77.306,44.402,998.913
75.376,49.662,990.479
73.862,55.743,985.161
73.632,41.709,990.551
62.760,51.453,998.949
62.949,70.467,981.609
58.723,66.370,999.851
62.703,47.417,1021.318
83.963,56.046,975.921
77.299,52.110,994.625
84.764,42.428,998.897
91.332,33.953,998.015
79.902,44.099,989.928
57.566,53.596,997.081
64.542,45.020,998.873
76.265,34.393,1004.063
81.444,36.764,1009.263
92.171,53.244,982.905
93.955,40.366,981.191
80.333,34.216,996.372
76.305,43.965,1000.256
75.662,54.679,1003.527
80.474,48.467,995.207
86.236,42.090,998.644
100.479,34.962,977.715
95.408,43.816,976.233
92.223,32.087,1009.645
96.742,36.391,982.829
83.522,46.983,1001.867
88.589,36.891,1002.709
87.144,33.482,1001.531
90.804,47.241,976.712
94.616,33.166,989.295
89.394,31.947,1015.774
85.502,47.224,994.226
79.879,43.296,1012.140
90.941,37.388,1003.718
85.448,44.455,984.451
88.869,39.933,980.008
86.336,37.379,999.246
101.349,25.642,993.166
90.658,37.340,1000.377
89.606,37.757,998.345
87.617,49.078,996.744
96.968,31.366,1006.379
98.343,38.684,973.034
86.253,55.733,967.971
89.975,19.404,1011.775
98.301,18.800,1014.256
87.573,36.360,1000.843
75.765,51.648,1002.566
82.985,36.847,999.186
87.645,44.299,990.136
95.946,37.592,985.656
98.138,26.968,995.650
92.176,33.659,999.049
95.746,42.976,994.508
82.895,48.549,989.748
81.317,47.023,988.792
90.395,40.795,988.511
84.490,46.492,999.685
96.122,34.114,1002.455
92.423,46.054,987.247
88.866,36.494,1019.375
97.888,35.871,992.981
102.878,25.905,990.599
101.881,49.657,971.430
95.046,50.443,988.556
88.585,36.722,1007.950
79.764,63.116,992.292
80.797,48.454,1000.363
88.054,40.216,1001.051
98.714,34.785,984.375
94.363,40.103,993.434
104.672,49.645,986.373
99.945,45.311,1002.482
112.668,41.214,989.958
113.708,46.337,977.959
99.332,52.327,996.835
96.751,42.007,1009.172
87.204,51.292,1013.038
84.317,66.050,999.177
94.038,45.605,995.374
103.686,40.679,992.431
98.355,43.939,981.232
93.661,56.515,987.551
90.283,60.594,1011.714
105.078,55.568,983.785
87.135,80.719,984.111
116.318,54.706,972.277
114.723,32.426,997.049
90.524,23.013,1021.680
70.684,36.421,1033.129
64.190,60.808,1021.829
80.036,33.025,988.941
66.020,71.413,984.763
86.958,45.437,974.296
73.688,59.363,983.558
78.686,35.831,993.590
81.759,59.048,959.627
78.046,23.779,983.638
74.379,-19.291,923.545
71.967,17.764,1076.322
-11.382,24.655,1124.652
89.752,37.495,914.317
96.033,28.910,1062.074
99.782,59.193,940.223
116.439,9.836,933.700
95.114,57.553,1047.964
86.272,-2.561,944.459
99.757,12.993,1009.897
53.097,64.703,983.363
92.915,19.640,1025.533
88.860,9.171,998.274
78.796,64.020,974.466
60.387,63.533,981.035
68.879,6.384,998.247
32.841,7.316,1014.200
41.038,29.796,1026.165
44.785,38.359,993.479
67.960,13.155,1014.294
56.885,18.318,1020.401
52.926,5.121,1001.632
67.888,19.727,968.618
57.497,19.332,984.515
63.576,29.130,956.977
43.805,7.299,1022.550
51.137,26.247,1006.053
57.195,23.016,1016.575
61.993,19.982,1001.013
74.264,19.149,981.512
70.342,14.355,993.608
59.681,17.643,986.275
64.720,29.234,977.458
57.619,9.902,1008.095
60.211,14.830,1007.107
60.517,17.146,995.480
60.442,8.463,1003.310
60.630,10.428,995.144
66.451,14.893,996.906
68.640,8.758,1003.382
60.123,10.819,989.966
68.252,7.570,1001.481
69.663,2.269,997.893
60.672,4.187,1012.400
64.678,6.531,1003.369
67.644,9.136,994.534
69.791,1.335,992.668
64.858,0.285,1003.021
56.076,1.724,999.065
54.887,0.716,998.908
56.098,7.104,994.060
48.125,2.235,993.128
65.577,-2.809,1006.300
62.330,-0.905,1005.872
49.578,-2.357,999.112
56.115,3.734,1001.435
49.177,7.166,992.552
48.403,-3.495,999.429
52.175,-4.605,997.346
52.964,2.008,987.090
51.586,1.579,994.885
51.752,-1.199,995.142
52.665,7.838,1003.374
50.247,-5.988,1007.870
50.657,3.185,994.189
53.834,2.623,1002.657
54.751,7.561,993.895
50.233,-4.491,994.479
48.919,4.735,996.037
57.515,-13.827,1005.774
58.456,15.717,994.147
56.002,-16.684,1018.987
73.989,74.757,996.107
58.929,29.415,1001.234
56.435,1.733,992.958
64.129,8.124,1015.126
59.863,-8.137,1002.747
52.436,29.271,987.125
75.164,2.122,989.626
48.770,-39.363,993.968
59.967,-48.658,1006.526
39.789,-130.425,1019.756
44.584,-175.687,978.668
38.912,-96.120,1033.788
190.914,253.607,937.778
348.317,691.908,1151.847
657.642,1321.172,1215.992
606.080,228.661,788.068
84.810,-913.793,955.302
-343.261,-1442.238,1106.711
-373.879,-1690.833,979.667
161.150,-856.154,851.601
644.603,319.281,775.295
939.854,1173.950,974.523
1173.155,1734.717,870.733
1250.578,1489.178,1040.633
1014.074,138.056,331.815
-148.093,-2475.110,1237.273
-679.885,-2624.449,1574.792
-10.247,-1102.830,330.373
863.745,92.141,1075.013
1386.225,2129.701,1005.782
1196.774,1579.630,928.606
1168.345,1307.202,1049.845
962.002,-117.922,331.793
-186.741,-3217.601,1469.405
-674.629,-2824.558,1421.580
481.328,-779.144,417.769
1132.675,918.634,1143.149
1637.780,2662.103,645.891
1421.793,1886.713,1148.075
1767.015,863.142,15.260
127.386,-4220.665,1749.775
-727.137,-3522.088,1468.087
928.517,-597.122,278.755
1638.463,2260.226,1055.169
1706.197,2610.014,601.542
1411.337,1392.995,982.436
1173.986,-818.719,328.085
-510.525,-3966.533,2345.692
-419.524,-1988.671,847.798
638.988,-508.952,792.580
974.130,1285.065,789.440
1185.955,1948.137,665.530
1005.705,1683.983,1218.709
1163.225,1020.697,512.833
163.185,-2231.742,1304.414
-894.275,-3462.635,1802.596
-59.613,-1518.586,399.324
1024.414,-210.850,991.653
1616.225,2860.023,848.473
972.696,1749.441,964.164
1646.480,1422.450,990.120
664.145,-1544.290,647.416
-794.694,-3503.807,2244.375
-680.462,-1733.614,334.436
485.718,108.795,924.222
901.417,2404.954,853.070
1178.147,2302.893,342.329
1022.989,734.540,1028.195
554.531,-766.295,734.279
-294.246,-2917.600,1767.086
-443.947,-2420.816,992.744
409.524,-827.109,611.436
990.055,616.943,934.370
981.268,1941.601,677.517
740.519,1738.827,1068.441
1565.385,2221.254,807.754
361.913,-3476.502,981.599
-668.581,-3640.729,1626.470
603.886,-1062.192,977.419
987.308,1132.555,1574.180
1268.820,2774.432,383.302
1218.001,1813.308,481.079
821.701,774.273,1095.686
824.379,-393.170,694.672
-458.900,-3752.329,2196.971
-512.888,-3526.570,763.310
1153.586,433.033,1256.700
1731.301,2528.468,1089.518
1934.899,3536.217,555.106
848.792,-218.856,779.971
-849.559,-3058.395,1525.553
-454.793,-940.835,895.930
-177.378,-489.380,321.144
47.763,-227.649,657.713
361.929,414.993,991.585
822.748,1897.026,1232.423
1192.028,2261.427,1532.222
1292.543,1741.209,516.659
-386.988,-4081.346,1072.362
-1231.623,-5099.189,1130.071
890.461,651.302,720.071
2280.195,4089.868,2377.398
2218.994,3583.594,1688.484
1033.092,-206.972,920.401
-1607.195,-5313.315,786.005
-1264.196,-5273.883,-63.131
2935.121,4157.522,1599.599
2365.388,4138.182,2545.402
-684.137,-2255.032,1410.854
-1028.839,-1775.515,144.865
415.238,1021.945,675.808
180.097,454.651,1531.786
87.802,374.808,866.167
-190.085,-224.079,838.732
-1.435,99.044,880.494
-52.543,83.616,1179.209
80.080,155.220,1028.416
-92.068,-44.915,1028.924
178.419,135.921,866.411
285.758,-198.197,1096.540
10.580,-192.579,855.973
15.519,0.349,911.198
-136.339,66.816,1200.474
-81.068,-94.054,1223.517
272.120,118.026,735.787
109.400,-194.140,905.670
-147.309,174.911,1130.294
13.304,377.075,562.871
-11.736,147.362,932.323
101.991,185.618,1163.571
317.261,10.192,701.997
179.442,237.763,970.757
227.807,98.363,874.907
156.106,31.101,1115.978
145.715,29.149,976.300
57.465,141.104,1010.353
53.456,113.657,972.073
98.660,169.273,1030.533
175.556,188.369,804.932
-22.757,102.804,1041.623
151.190,-64.378,901.438
-374.760,394.712,1260.495
-51.871,127.727,1076.187
-19.113,41.862,929.575
-186.430,-388.120,1037.497
209.209,951.011,1184.667
478.777,2316.322,1100.056
969.186,2070.541,745.998
35.233,-1887.220,1031.596
-1023.738,-4560.060,1021.690
-91.483,-1372.418,574.398
1128.201,2600.992,1818.522
1576.072,4398.792,2024.017
1190.413,1321.079,1264.029
-192.627,-2703.993,814.602
-1299.546,-4639.893,379.604
236.025,-1522.246,333.516
1531.509,3271.026,2331.547
1720.575,4701.439,2603.382
1277.372,268.022,1342.210
-585.104,-3948.932,810.364
-1052.404,-3699.938,-133.545
443.564,351.257,807.416
702.771,1845.772,1873.401
382.210,1118.915,1524.540
3.093,-21.012,907.779
-161.239,-353.539,844.834
-42.775,-16.884,933.784
-9.269,234.330,1030.892
-43.546,140.366,944.134
-45.497,13.346,1029.147
-101.326,-54.278,962.073
-56.048,33.885,1032.027
-34.584,102.902,963.090
-51.101,66.022,995.873
-32.196,64.356,1059.216
-32.099,59.768,989.600
-12.002,94.359,1023.637
-18.843,108.445,932.614
-6.485,121.102,985.755
-21.742,74.232,1010.771
-21.495,60.110,972.674
-15.856,27.490,1007.955
-32.058,60.430,997.576
-26.862,57.292,1029.628
0.948,118.636,1001.341
-4.308,63.187,1022.082
29.146,127.904,975.919
-1.962,64.847,1030.515
-1.081,98.641,980.746
-18.175,-56.532,997.648
-24.226,43.828,949.794
-50.339,-100.969,998.011
-27.950,42.397,952.353
-36.754,-147.737,1014.748
6.593,313.196,961.374
324.494,1637.692,1272.244
1029.707,2921.571,915.765
662.641,-1408.985,1727.513
-868.254,-5055.263,1251.460
34.971,-2442.158,-524.350
1576.677,2091.942,1787.947
1536.050,4887.915,2651.179
1694.622,2390.693,1785.703
546.388,-2915.241,683.594
-1127.244,-5876.599,267.369
438.213,-2106.000,416.619
1880.886,3947.515,2024.282
1835.384,5714.890,2521.896
1613.257,612.100,1067.555
-221.330,-5029.036,1466.624
-939.169,-5219.629,264.098
1374.810,17.112,817.246
1854.199,4796.387,2520.148
1286.679,3423.973,1103.653
88.899,-1682.874,1379.714
-556.830,-1784.115,557.755
-0.135,169.822,769.871
45.563,598.912,1011.355
-13.196,302.001,1166.561
-57.522,122.031,1110.948
-55.457,19.379,952.697
-10.804,117.124,890.187
57.078,246.478,1020.216
34.663,246.173,914.243
6.231,223.601,1070.600
171.549,271.083,984.578
203.695,218.333,774.291
130.818,221.169,1049.825
-65.276,326.392,928.698
62.459,274.862,1058.063
95.390,229.450,936.860
100.116,180.302,927.600
66.239,174.853,925.376
22.452,203.603,1015.634
16.021,149.477,1058.774
13.387,199.662,952.714
42.987,162.525,949.427
38.286,120.162,973.849
29.390,166.484,929.654
28.875,134.329,1054.053
47.265,96.131,1015.816
17.756,115.684,1009.508
43.275,107.674,964.219
68.688,122.276,959.879
38.500,113.396,991.368
19.501,79.391,1006.512
6.557,94.059,966.084
-22.204,80.100,1047.947
-34.530,134.757,966.291
-52.899,129.323,1089.018
4.594,104.602,862.710
-18.432,67.865,1051.467
22.604,75.073,991.902
28.983,78.425,972.816
22.946,59.186,1007.319
-26.821,123.952,1005.102
10.403,83.574,1007.059
31.032,71.946,979.449
32.436,88.161,998.501
37.211,76.897,976.201
30.355,63.278,995.840
19.421,70.670,989.934
-10.002,104.171,1004.962
23.348,77.093,999.637
32.626,73.913,992.464
7.852,100.236,996.880
22.434,79.134,1003.988
40.491,79.194,987.984
28.842,96.763,1006.447
38.192,85.689,991.500
32.713,85.583,983.017
32.527,86.374,999.334
25.937,91.092,988.834
19.714,88.509,998.946
32.217,84.378,988.235
29.236,86.639,991.786
27.392,94.004,984.711
37.264,71.779,1007.671
16.246,91.068,989.052
16.575,89.528,1012.891
18.418,97.201,979.232
20.540,103.061,1011.478
40.998,86.718,986.750
13.744,98.381,1013.284
20.141,101.974,976.265
13.297,96.671,1006.261
29.602,75.637,958.358
39.313,91.631,1030.518
26.751,98.960,956.744
16.296,105.005,1084.972
-0.602,22.083,233.874
