acc_x[mg],acc_y[mg],acc_z[mg]
-28.284,105.151,918.791
-36.779,109.909,1028.053
-32.035,88.476,984.279
-27.401,107.905,1007.962
-13.209,112.099,986.619
-13.928,114.208,1001.865
-25.305,111.084,985.100
-30.834,114.540,1005.776
-12.650,107.997,999.208
2.490,95.150,988.285
6.080,84.041,985.322
-2.661,79.707,997.397
-23.446,101.139,999.723
-10.770,115.301,1005.550
5.539,118.414,981.968
-6.395,94.583,992.323
-14.469,100.797,997.174
-21.162,97.676,1010.762
-14.770,91.491,997.965
-15.682,112.958,990.711
-10.509,133.654,1004.236
-12.089,107.483,1015.047
-0.944,51.384,1016.121
-3.319,52.981,1006.179
-9.363,77.168,999.701
-12.417,104.246,998.569
-16.078,155.788,999.315
-15.614,127.103,1016.793
-18.227,45.946,1005.731
-25.877,52.806,999.917
-19.109,118.120,998.981
-10.386,142.401,1006.753
-2.735,110.121,1013.922
-6.132,80.870,1005.924
-22.743,68.113,1000.830
-22.777,115.909,1001.448
-11.055,151.669,1002.266
-9.773,115.995,996.749
-28.436,80.393,994.418
-23.681,118.540,998.888
-22.735,136.099,1001.340
-20.112,128.169,994.521
-23.014,85.146,994.096
-32.124,89.445,988.519
-29.258,105.652,989.541
-23.119,92.791,993.100
-19.408,110.556,997.790
-25.242,156.850,992.247
-41.200,79.191,994.528
-51.240,53.397,982.957
-23.386,214.632,996.986
-6.033,290.948,975.186
-27.066,285.939,972.082
-32.806,374.544,980.306
-16.388,416.659,991.319
-44.821,303.109,1000.814
-57.025,222.379,970.178
-53.970,222.253,885.346
-46.857,47.647,699.647
-48.848,-371.642,540.220
-13.723,-890.794,538.612
70.118,-976.092,578.437
55.187,-640.421,489.629
-37.925,-665.770,325.428
-7.233,-1043.221,216.670
68.239,-1273.987,170.324
-3.117,-1092.773,155.918
-6.608,-859.978,44.215
12.500,-822.475,-89.732
42.379,-1013.692,-177.912
31.532,-1140.816,-245.978
24.052,-1128.645,-351.894
44.334,-1120.301,-339.906
40.882,-1147.748,-367.275
41.988,-1081.273,-394.251
38.067,-979.526,-452.366
57.068,-949.401,-503.595
73.005,-974.160,-513.138
65.188,-989.544,-449.223
72.396,-953.487,-418.777
50.020,-874.616,-414.176
58.375,-901.184,-414.167
37.783,-839.151,-402.414
49.769,-988.952,-433.852
35.533,-1245.600,-417.109
57.261,-1646.151,-451.189
65.040,-1896.175,-374.685
62.865,-2195.194,-526.211
8.178,-1992.687,-1131.628
74.218,-1407.047,-1674.139
28.966,-384.210,-1767.767
-8.551,640.408,-1415.494
-128.525,2662.752,24.747
83.099,3840.922,1112.605
9.642,1515.548,839.713
-36.936,-1328.084,1046.638
-232.496,-1341.328,812.079
-224.670,988.580,853.474
184.298,1474.932,1024.741
-21.526,1013.397,944.171
-117.524,78.849,926.172
-91.065,67.497,926.766
-42.200,368.852,961.624
-29.713,691.605,940.121
-55.148,584.660,944.707
-74.308,363.341,938.045
-63.016,189.999,912.757
-51.034,361.340,931.068
-29.136,491.295,920.096
-30.193,495.203,927.985
-54.186,332.867,917.790
-58.207,296.620,921.791
-51.042,361.049,929.507
-28.626,464.833,925.095
-42.693,443.469,922.160
-45.465,391.267,928.755
-46.838,257.411,915.463
-47.117,277.884,925.161
-30.946,434.549,945.926
-37.200,481.321,930.371
-45.809,392.944,932.987
-44.518,318.543,925.553
-50.292,288.386,941.727
-40.264,382.640,933.398
-34.123,390.896,935.332
-40.903,365.990,929.910
-56.153,413.401,932.499
-46.362,423.854,933.159
-44.535,345.382,930.948
-45.658,224.265,944.047
-46.485,284.956,950.105
-39.004,444.612,935.611
-35.824,428.044,935.056
-46.373,332.656,942.065
-44.396,290.495,951.891
-43.339,289.009,947.754
-47.826,376.704,942.906
-34.890,427.199,934.788
-33.078,399.119,933.481
-40.877,356.916,938.075
-50.337,295.093,937.769
-57.153,284.288,941.746
-39.255,384.263,939.116
-37.259,403.531,946.153
-44.157,324.776,944.878
-46.463,315.828,940.993
-49.126,351.318,939.782
-43.267,363.396,937.662
-36.254,366.678,934.092
-34.102,367.401,935.507
-38.610,351.485,943.619
-51.844,349.382,950.415
-42.794,366.559,948.441
-35.832,337.566,935.501
-49.606,342.104,947.390
-40.097,358.930,942.650
-28.068,361.627,922.659
-44.221,367.098,927.149
-35.487,409.262,908.160
-48.310,438.562,923.118
-45.055,456.751,932.700
-44.185,492.511,946.879
-22.797,620.182,968.215
-21.269,651.299,948.757
-75.450,379.366,879.704
-97.230,5.065,893.335
-64.552,-61.673,897.487
-36.591,34.681,825.848
-40.052,-76.922,690.963
-46.988,-450.180,556.891
-0.776,-764.653,507.347
32.579,-688.520,429.861
-37.918,-505.516,236.810
-42.089,-706.173,-30.527
15.162,-1274.656,-159.277
29.120,-1578.676,-159.880
-14.153,-1325.646,-159.155
8.478,-1155.430,-199.280
11.499,-1155.916,-226.144
13.802,-1102.371,-292.256
24.594,-1022.489,-317.554
38.355,-1065.219,-330.297
13.027,-1045.570,-355.382
40.966,-971.442,-367.676
18.295,-878.009,-363.447
35.998,-910.692,-375.450
24.956,-907.369,-390.202
31.344,-918.736,-427.494
24.579,-898.620,-413.268
39.782,-951.396,-406.912
13.783,-870.566,-384.635
30.768,-976.492,-380.709
-15.515,-1019.541,-340.837
20.510,-1340.034,-384.926
-9.831,-1829.549,-425.193
127.631,-2915.260,-492.920
-167.667,-3102.312,-1353.358
45.606,-1450.329,-2696.762
98.228,102.776,-2756.680
-86.252,1628.279,-1567.797
142.824,4251.317,662.403
143.129,2694.093,1110.318
-23.679,361.770,899.393
-192.800,-1922.062,1002.507
-333.778,-695.128,724.149
-74.310,1297.201,1019.376
181.684,1343.434,1038.389
-113.543,707.217,959.524
-114.220,25.666,870.186
-80.103,238.003,974.724
-42.793,424.196,942.338
-60.722,643.310,965.651
-34.068,474.568,928.360
-72.260,387.143,938.640
-69.828,285.645,919.016
-70.126,349.619,927.890
-47.651,324.315,911.079
-52.076,443.240,928.579
-37.931,459.147,920.163
-61.771,430.733,909.209
-55.638,307.895,919.890
-53.553,330.123,931.816
-44.651,386.649,925.952
-43.940,448.836,929.989
-46.149,414.043,913.064
-43.935,400.028,928.970
-53.721,312.324,926.991
-67.649,263.948,934.228
-50.996,369.104,929.653
-33.371,469.806,933.156
-37.965,424.398,920.750
-56.441,339.928,937.049
-55.536,324.388,929.622
-43.256,402.765,933.061
-48.374,411.474,932.391
-61.361,329.264,928.927
-57.982,327.637,933.476
-49.134,414.976,925.417
-51.497,422.491,932.234
-57.099,337.989,941.975
-53.541,340.673,941.694
-51.259,367.819,939.330
-48.576,344.608,927.250
-37.381,394.522,927.484
-52.030,421.017,941.172
-60.300,372.883,953.358
-60.869,352.171,947.581
-56.903,318.073,944.244
-48.582,312.593,940.809
-43.169,392.606,936.774
-48.462,389.505,936.260
-51.300,331.156,927.648
-61.417,316.533,943.914
-51.863,340.110,950.741
-50.065,389.524,935.630
-43.073,412.746,933.502
-47.594,362.658,921.048
-59.451,296.423,935.187
-64.364,341.482,949.330
-48.083,410.166,944.743
-48.492,393.458,935.751
-60.671,384.944,919.438
-66.307,373.984,927.031
-59.380,333.584,929.164
-57.679,401.486,954.664
-60.487,503.789,943.643
-51.044,533.019,958.079
-48.126,489.227,953.991
-57.780,397.194,954.556
-60.147,340.095,963.032
-60.317,259.249,922.554
-57.033,146.332,897.932
-68.089,-32.257,822.206
-72.895,-298.633,763.087
-10.163,-534.617,727.708
-1.840,-665.038,695.288
-14.157,-662.367,645.759
-30.225,-632.434,568.745
-66.602,-710.914,428.562
-38.893,-903.301,341.383
-0.323,-969.180,243.204
-26.594,-953.181,138.479
-19.577,-946.688,22.668
-6.066,-969.348,-102.449
-5.925,-1087.499,-190.052
19.202,-1271.500,-216.035
8.180,-1313.750,-202.336
17.589,-1144.998,-255.591
14.631,-954.121,-325.438
26.227,-884.537,-362.437
10.173,-1019.721,-367.570
34.776,-1152.766,-341.424
44.361,-1007.807,-339.891
21.538,-867.281,-343.006
22.688,-889.749,-331.280
24.023,-980.387,-309.108
33.679,-967.079,-334.665
14.150,-972.888,-318.937
17.552,-961.881,-302.104
9.248,-1042.872,-268.695
15.955,-1113.814,-259.243
7.991,-1433.721,-279.129
22.498,-1849.697,-241.936
-3.866,-2352.981,-439.807
-18.848,-1989.913,-953.201
80.455,-1221.018,-1442.393
13.510,-263.889,-1429.896
-108.740,748.816,-825.082
-93.183,2868.155,594.581
78.851,3012.837,1132.106
23.254,463.261,982.620
-39.210,-1345.735,882.156
-282.536,-317.886,720.436
-30.070,1370.362,917.284
84.474,1469.298,974.189
-89.368,679.719,890.255
-100.244,-7.717,878.675
-56.040,131.180,909.887
-55.877,426.510,960.570
-43.090,582.721,974.379
-58.096,417.910,944.604
-53.795,348.651,927.662
-40.683,329.690,931.582
-29.723,348.558,914.477
-27.931,394.719,889.180
-43.407,459.817,894.035
-47.250,431.284,908.505
-37.052,388.815,924.428
-35.808,316.882,912.234
-43.238,373.712,907.691
-49.962,421.138,935.284
-44.532,416.857,941.742
-35.292,397.753,955.064
-22.099,371.318,931.914
-51.964,268.064,938.404
-33.229,334.841,927.399
-31.679,470.317,934.115
-20.586,457.282,948.963
-30.982,314.626,938.026
-50.513,191.009,944.564
-44.467,306.843,946.469
-33.595,457.441,957.429
-28.095,415.922,952.680
-45.859,305.323,946.543
-54.591,307.275,935.522
-35.810,366.879,948.548
-34.011,378.225,945.381
-45.389,300.367,950.703
-50.534,283.246,944.793
-38.008,357.484,940.706
-24.590,362.627,943.414
-14.579,303.651,935.875
-13.056,315.642,926.403
-22.174,350.999,944.805
-27.375,369.845,938.931
-23.329,384.973,942.844
-15.080,343.635,945.092
-29.463,293.651,942.088
-34.383,332.774,947.509
-33.115,390.992,936.865
-34.316,383.916,932.362
-21.738,358.578,954.282
-15.580,290.349,960.931
-39.931,263.499,951.673
-26.784,327.168,948.863
-29.599,358.090,949.049
-35.602,348.650,950.295
-23.769,346.374,949.375
-33.224,275.861,956.824
-45.759,264.003,941.084
-26.440,365.434,939.816
-12.884,369.054,938.057
-13.390,329.505,934.328
-20.489,317.768,939.774
-19.433,290.696,949.998
-33.311,264.515,939.487
-37.025,287.992,950.971
-24.956,348.534,965.143
-14.638,337.495,978.003
-22.256,285.901,950.274
-27.569,258.400,972.906
1.683,297.647,967.517
-10.512,303.515,978.597
-28.457,287.125,963.126
-23.783,282.627,987.873
-16.389,288.889,964.484
-14.541,290.274,967.832
-7.200,305.744,961.318
-29.834,297.112,982.404
-18.838,278.424,969.919
-23.685,289.444,982.972
-25.503,265.783,947.268
-26.815,274.787,974.254
-15.330,310.478,958.637
-14.197,312.333,966.456
-10.193,260.899,958.262
-9.166,280.111,969.459
-13.558,262.776,942.900
-24.707,253.488,987.853
-28.792,271.102,944.786
-32.073,315.934,1017.956
-36.842,267.406,911.679
-58.777,320.548,1082.324
-20.576,121.718,394.300
