acc_x[mg],acc_y[mg],acc_z[mg]
-28.552,107.145,935.283
-36.836,109.976,1023.287
-32.190,89.086,986.704
-28.695,105.119,1007.154
-14.839,112.826,987.134
-12.562,113.306,1002.086
-22.299,112.402,985.513
-31.611,112.599,1001.711
-19.669,112.722,1001.767
-0.864,98.019,994.246
5.385,89.827,980.735
3.703,77.329,996.788
-15.128,90.986,993.960
-22.369,108.729,1009.323
1.084,120.424,991.111
1.439,108.669,985.939
-9.773,92.765,992.806
-17.842,103.882,1003.725
-19.783,92.672,1008.201
-14.335,95.588,994.872
-15.121,118.898,991.172
-10.165,133.889,1008.732
-11.646,98.215,1014.357
0.408,48.023,1016.910
-4.428,55.072,1003.869
-9.141,77.816,1000.857
-12.629,104.292,997.549
-15.862,154.398,999.713
-15.779,133.396,1015.425
-17.400,52.127,1008.409
-25.248,45.673,999.082
-21.472,105.785,999.909
-11.682,144.067,1002.994
-5.146,119.797,1014.595
-2.145,89.570,1008.077
-18.261,66.783,1002.526
-24.530,92.450,999.960
-17.010,144.527,1003.352
-6.317,140.150,999.004
-20.090,89.439,995.324
-28.718,93.311,994.940
-21.479,131.451,1002.037
-23.100,135.726,998.074
-18.877,115.700,994.543
-26.886,77.932,992.479
-32.023,98.163,988.116
-28.235,102.966,990.081
-21.587,92.248,994.361
-20.023,118.366,997.280
-26.131,156.277,992.017
-43.162,70.130,994.506
-50.403,57.764,982.360
-23.873,214.381,997.944
-5.305,290.835,975.167
-25.663,283.671,971.929
-33.931,361.639,979.123
-17.240,422.187,989.292
-37.055,329.660,1001.235
-58.586,229.172,981.376
-53.252,227.914,916.715
-50.848,130.532,764.858
-45.588,-203.293,578.368
-39.240,-705.117,524.427
39.828,-1025.602,569.148
78.164,-791.092,551.034
8.021,-586.723,403.698
-48.578,-822.788,268.602
41.443,-1190.061,187.024
48.014,-1240.087,170.340
-16.480,-999.683,128.013
1.497,-820.040,0.509
18.530,-861.319,-120.044
46.282,-1056.532,-190.233
25.435,-1148.815,-267.649
28.081,-1118.753,-358.133
44.392,-1130.267,-337.444
41.050,-1138.858,-371.953
41.628,-1086.870,-394.169
38.407,-967.957,-453.414
55.436,-962.308,-501.482
73.975,-957.383,-515.745
63.973,-1004.998,-457.153
74.434,-948.721,-419.724
51.568,-899.004,-414.893
58.566,-879.881,-415.315
41.554,-871.616,-402.787
46.695,-896.029,-424.927
39.676,-1169.050,-424.547
47.257,-1465.616,-435.678
61.412,-1829.597,-422.071
73.738,-2037.447,-385.293
26.418,-2210.047,-801.785
35.207,-1723.257,-1422.208
67.590,-1052.332,-1769.480
17.217,39.087,-1705.482
-55.661,1144.151,-1052.526
-96.931,3380.222,541.671
118.136,3470.528,1080.755
-35.474,790.019,843.343
-32.650,-1650.605,1058.584
-286.877,-1003.971,763.955
-164.624,1160.811,895.939
183.430,1451.807,1014.691
-27.190,989.488,948.391
-121.566,67.800,920.667
-88.541,67.798,930.737
-49.247,330.718,955.959
-25.208,683.689,947.712
-53.019,607.199,937.058
-71.360,420.567,948.543
-67.864,190.051,909.317
-53.767,311.884,931.428
-36.542,454.715,920.359
-24.723,526.853,927.476
-45.981,385.457,921.058
-58.970,302.429,918.864
-55.811,310.747,925.981
-39.834,431.386,929.756
-29.261,457.420,920.813
-50.093,435.467,926.758
-41.065,335.841,924.816
-52.150,242.331,913.929
-39.555,318.302,934.288
-32.166,470.749,943.582
-38.517,461.735,928.796
-47.303,380.597,933.025
-43.662,304.890,925.715
-51.551,297.343,943.523
-38.011,386.550,931.583
-35.209,390.791,936.154
-40.034,363.902,929.298
-56.594,413.560,932.763
-47.011,423.766,933.476
-44.078,361.228,930.267
-46.030,234.762,941.957
-45.894,257.726,950.653
-42.364,416.063,939.410
-33.565,452.396,932.577
-44.683,354.831,940.485
-45.347,303.646,947.917
-43.245,278.017,952.380
-46.059,335.337,942.755
-43.582,415.405,941.120
-29.393,419.374,929.963
-38.838,379.023,938.406
-41.985,334.481,935.601
-57.173,275.050,941.447
-50.817,314.083,939.254
-37.085,406.496,941.865
-38.322,385.169,945.940
-45.996,312.716,944.643
-45.915,323.565,939.755
-50.080,353.857,940.300
-41.062,364.674,936.604
-37.080,366.330,934.451
-33.038,367.825,935.470
-39.574,351.086,943.867
-50.707,348.752,949.997
-44.967,366.789,949.174
-34.332,340.940,936.350
-48.615,338.533,944.244
-43.823,357.325,947.983
-27.653,361.731,923.095
-40.849,362.672,928.707
-38.979,394.436,912.112
-41.346,431.600,915.462
-50.245,449.739,930.869
-42.077,469.772,938.550
-38.293,552.984,959.312
-11.290,668.802,968.765
-45.929,561.484,914.314
-90.929,207.317,874.360
-90.284,-66.856,905.181
-49.714,-21.808,879.199
-36.515,30.572,791.420
-42.125,-157.077,648.158
-43.858,-545.953,539.650
13.819,-781.831,499.188
24.936,-651.224,408.271
-43.692,-505.883,207.109
-39.011,-738.094,-48.637
17.658,-1301.150,-159.320
28.683,-1572.513,-161.456
-13.072,-1345.406,-156.454
5.630,-1149.327,-198.409
13.155,-1167.326,-220.066
11.929,-1104.149,-283.465
21.736,-1042.950,-315.626
38.879,-1037.006,-326.102
17.378,-1078.157,-348.380
31.516,-979.984,-367.616
30.338,-921.288,-362.954
22.825,-868.862,-371.264
36.607,-937.145,-379.787
22.781,-890.471,-413.667
30.989,-927.673,-424.340
30.324,-903.622,-409.808
30.997,-945.133,-397.200
19.053,-866.496,-384.343
16.992,-1022.469,-366.990
-8.435,-1054.877,-343.909
10.710,-1474.548,-402.531
18.283,-2004.730,-425.809
107.219,-3123.460,-564.025
-197.008,-2916.496,-1583.082
98.287,-1245.485,-2777.484
67.854,206.046,-2714.688
-77.622,1701.789,-1486.320
140.845,4286.153,656.626
147.693,2767.996,1136.429
-7.378,560.895,872.071
-178.021,-1770.491,1042.419
-318.434,-1118.833,713.532
-170.959,1128.726,977.717
197.759,1371.774,1042.030
-48.778,986.277,1002.340
-132.005,84.296,860.293
-94.329,182.238,956.914
-45.837,299.686,947.092
-61.679,632.948,966.499
-37.794,526.043,936.430
-56.024,467.310,941.529
-70.092,285.319,920.279
-76.110,349.465,932.251
-55.964,302.078,912.075
-53.367,390.088,923.973
-43.009,430.006,920.690
-45.837,487.292,924.530
-60.321,377.239,900.725
-57.077,323.417,932.193
-50.176,317.570,923.402
-46.348,414.432,933.245
-41.887,432.373,923.194
-48.243,427.248,917.719
-42.049,387.545,925.085
-54.613,327.260,930.258
-66.224,253.077,931.524
-54.962,359.664,931.652
-33.866,458.093,932.288
-36.001,444.813,922.651
-52.160,353.736,932.389
-58.873,319.050,934.507
-45.548,375.655,929.020
-44.699,425.456,936.037
-57.062,360.259,927.020
-61.973,311.383,933.614
-51.828,374.294,928.780
-49.366,436.388,926.290
-54.230,384.609,938.144
-57.234,322.641,942.430
-50.967,360.190,941.470
-52.491,357.880,935.871
-43.722,352.081,924.809
-39.372,410.667,930.513
-55.450,413.073,944.672
-60.649,365.090,953.703
-60.529,350.057,946.171
-56.278,312.547,944.279
-47.670,317.577,940.299
-43.440,394.680,936.747
-48.291,389.838,936.592
-51.162,332.254,927.094
-60.978,316.479,942.641
-53.450,335.257,951.211
-49.611,382.332,937.955
-45.173,412.969,933.498
-44.211,380.744,924.474
-57.331,306.493,926.833
-63.976,316.173,949.939
-55.589,395.426,944.215
-43.523,405.898,943.637
-57.622,382.747,921.634
-63.257,386.730,925.245
-65.798,348.542,924.539
-54.798,348.888,942.519
-61.859,451.291,952.603
-55.982,523.237,944.822
-49.915,527.138,962.290
-48.882,461.359,948.943
-61.249,378.522,961.127
-58.244,326.496,955.608
-61.827,238.825,916.709
-55.261,125.812,891.006
-72.353,-60.577,811.464
-68.622,-319.223,761.542
-9.133,-542.459,724.845
-0.996,-664.997,697.081
-14.933,-664.367,645.842
-26.662,-632.075,579.534
-65.258,-693.836,441.520
-46.692,-875.696,354.314
-2.859,-970.686,263.418
-18.638,-953.825,162.781
-27.839,-950.525,55.710
-4.362,-952.034,-65.707
-11.497,-1036.848,-166.239
13.320,-1200.515,-213.826
13.252,-1329.505,-206.270
11.743,-1235.469,-220.148
17.324,-1044.247,-296.948
18.689,-897.484,-343.448
23.364,-920.092,-372.215
10.078,-1094.025,-355.677
48.928,-1129.833,-339.568
32.602,-947.403,-339.948
24.332,-858.617,-344.315
18.498,-913.197,-322.768
30.625,-984.224,-312.720
27.655,-966.413,-335.207
17.690,-970.388,-316.840
12.592,-966.733,-299.754
14.760,-1043.631,-268.676
9.448,-1115.357,-256.993
15.757,-1417.862,-283.089
12.325,-1810.208,-236.950
13.434,-2323.483,-403.540
-39.176,-2098.177,-855.366
80.278,-1380.375,-1388.034
29.703,-480.691,-1466.849
-66.364,395.660,-1090.665
-142.563,2187.095,160.355
50.820,3416.516,1106.560
41.871,1518.511,1022.898
16.830,-842.320,951.893
-192.953,-1146.295,758.112
-215.065,719.823,796.020
94.812,1553.874,982.068
3.139,1233.496,936.065
-110.905,294.829,876.311
-84.029,3.946,887.584
-50.944,196.861,923.390
-56.196,524.311,972.011
-40.904,537.149,967.538
-63.226,412.985,940.864
-48.485,325.355,926.152
-42.056,348.279,932.819
-26.680,334.009,910.578
-30.351,412.413,889.990
-41.522,446.917,892.890
-49.308,443.957,908.999
-35.943,384.786,922.898
-37.148,328.251,915.796
-39.891,353.336,904.041
-51.672,423.355,932.118
-43.851,416.183,939.243
-41.745,404.409,954.272
-19.658,386.101,939.660
-44.095,302.310,932.693
-43.921,279.235,936.435
-28.529,429.148,923.373
-29.077,479.680,948.928
-18.769,400.973,940.487
-44.805,235.109,942.251
-48.236,213.393,943.491
-41.880,379.617,952.348
-28.608,465.633,955.976
-32.481,376.859,952.198
-50.328,293.283,941.636
-52.342,320.189,937.742
-32.344,376.235,949.169
-36.397,370.390,945.529
-45.886,291.815,950.731
-50.742,287.550,944.164
-36.961,359.966,940.526
-24.798,362.726,943.746
-14.855,305.084,936.128
-12.473,312.373,926.322
-21.476,348.407,942.464
-26.482,366.397,941.556
-25.895,385.214,939.580
-14.487,358.156,947.583
-25.524,300.604,939.852
-34.095,311.510,948.116
-33.680,378.132,940.649
-33.594,391.017,932.203
-30.299,372.280,942.278
-12.408,326.197,963.529
-29.493,262.615,953.867
-37.402,288.377,951.677
-23.290,349.472,946.602
-35.142,354.066,952.058
-31.444,350.063,947.396
-23.482,332.672,953.663
-38.891,256.504,953.052
-43.410,285.501,939.601
-22.392,376.399,939.588
-12.137,362.116,937.960
-14.354,326.787,933.427
-20.395,317.359,941.641
-19.898,288.305,949.173
-32.890,265.889,940.242
-37.929,284.066,949.520
-25.141,347.472,964.388
-16.327,340.243,978.140
-18.385,296.250,953.713
-31.530,255.618,966.526
-2.378,289.697,971.802
-4.448,305.373,973.385
-24.527,292.854,970.054
-28.403,280.819,974.743
-16.277,288.217,982.617
-18.434,287.836,956.595
-6.150,298.696,971.368
-19.532,306.380,963.916
-27.723,284.663,985.788
-17.409,283.219,967.790
-26.548,283.930,979.508
-25.298,261.522,942.006
-25.220,286.101,983.954
-12.601,317.409,948.980
-15.058,300.954,972.950
-8.430,258.786,954.705
-10.296,282.555,969.917
-13.956,259.094,942.868
-25.947,253.965,989.110
-28.384,273.037,944.307
-32.552,315.758,1018.978
-35.721,268.272,910.982
-58.749,318.535,1080.741
-27.067,159.718,518.790
