acc_x[mg],acc_y[mg],acc_z[mg]
2.729,-25.995,936.872
0.883,-23.323,1015.191
-1.047,-25.100,982.080
-5.237,-45.151,1015.960
-0.735,-60.645,999.483
-5.263,-32.658,1017.394
-6.114,-13.294,1007.687
-10.143,-45.060,1016.805
-6.839,-59.291,997.007
-0.637,-43.896,1009.275
9.309,-32.483,991.681
-3.061,-21.574,1000.657
-7.323,-28.601,1002.645
-6.959,-52.856,1010.451
-8.738,-49.905,1001.935
-4.650,-45.604,1002.165
-1.302,-33.073,1003.323
-3.291,-32.626,1003.596
-18.569,-46.410,1007.560
-9.858,-47.024,1006.509
-1.198,-43.583,1006.802
-3.134,-29.222,1002.794
-10.732,-29.231,1004.927
-2.524,-40.758,1013.565
-4.145,-41.103,1005.287
-15.282,-29.609,1014.230
-7.768,-33.999,1005.607
-7.138,-50.191,1010.921
-8.642,-45.911,1011.870
-1.010,-31.673,993.792
-6.445,-40.722,1003.662
-4.217,-40.111,1004.214
-13.513,-39.425,1003.827
-8.681,-32.114,1000.008
-6.951,-30.348,998.859
-9.798,-27.075,997.645
-11.475,-37.973,1009.158
-13.762,-49.572,1005.290
-4.800,-27.102,997.147
-2.609,-21.974,1004.644
-9.282,-38.922,1012.849
-6.505,-37.062,1013.097
-0.238,-26.075,1002.436
-3.133,-25.492,1010.848
-14.018,-33.334,1004.541
-10.897,-54.647,1011.938
-7.490,-52.948,1007.829
-4.341,-24.965,1003.816
-7.384,-22.077,1006.126
-9.242,-48.794,1004.806
-6.492,-43.935,996.750
-3.400,-28.442,998.153
-1.278,-26.655,994.457
-7.093,-30.278,995.657
-11.331,-29.459,1008.926
-11.781,-31.869,1013.674
-4.492,-42.520,1016.498
-5.310,-40.282,1008.741
-10.170,-21.444,1017.447
-13.161,-13.888,1021.631
-8.976,-42.675,1022.666
-6.601,-51.056,1006.765
-16.095,-30.342,1008.069
-7.117,-26.725,1013.830
0.994,-31.355,1007.897
-1.940,-26.761,986.418
-12.069,-28.555,981.978
-1.527,-40.138,976.701
-0.692,-29.895,963.686
-7.997,-7.666,970.791
-1.572,-23.768,939.021
-3.794,-26.576,938.125
0.447,-31.164,894.034
27.647,-32.081,835.533
54.688,-12.691,761.088
45.268,3.784,629.126
37.276,-35.840,534.902
59.869,-29.267,428.800
33.160,-86.090,438.782
-74.168,-295.005,538.810
-262.229,-478.261,624.623
-514.047,-499.197,680.410
-751.499,-336.760,781.322
-895.288,-66.410,981.665
-920.297,162.289,1181.844
-942.885,60.668,1338.272
-968.952,-188.872,1424.258
-949.361,-259.697,1431.331
-915.156,-195.084,1398.473
-830.559,-72.786,1335.035
-712.169,23.945,1223.113
-667.738,-11.280,1144.779
-669.618,-121.811,1047.664
-669.717,-176.189,955.787
-616.458,-169.363,876.408
-545.942,-156.693,888.699
-466.893,-123.364,926.165
-436.670,-102.973,853.968
-422.416,-132.592,797.371
-377.066,-179.762,819.201
-313.776,-191.706,884.367
-284.976,-177.553,897.746
-285.787,-139.725,895.227
-263.685,-96.804,852.310
-203.453,-70.978,870.956
-148.538,-79.546,917.709
-147.000,-94.862,931.444
-148.714,-109.595,895.981
-122.836,-104.969,888.882
-82.443,-66.353,908.150
-46.024,-28.437,931.616
-9.618,-13.151,903.396
-8.470,-39.009,904.486
-30.482,-61.460,927.569
-29.904,-33.284,953.942
-5.430,-10.543,975.172
7.611,-27.081,970.106
0.673,-43.529,976.289
-15.185,-37.364,963.108
1.601,3.737,948.563
27.764,1.849,952.866
46.727,-9.594,972.354
44.828,-26.949,977.805
37.932,-37.812,951.093
52.082,5.119,923.712
72.992,34.442,953.583
56.804,28.222,967.948
41.421,22.135,953.975
36.369,9.049,967.530
33.570,-4.620,988.044
31.948,24.741,1022.044
33.779,31.681,1017.479
45.985,11.965,1005.426
35.038,-3.857,1006.025
22.225,-6.980,1008.564
21.687,-5.830,1015.693
40.858,9.440,1006.556
28.806,-6.590,998.076
16.620,-22.413,1013.324
20.994,-3.355,1001.844
34.163,13.766,1003.088
25.884,1.465,1006.850
17.727,-8.780,1002.725
20.462,-5.180,1000.610
18.918,10.418,1003.930
27.542,15.624,1013.520
17.075,7.921,1003.913
5.815,12.664,1015.038
15.338,9.726,1008.678
20.244,7.209,1013.529
4.596,2.604,1018.509
3.592,2.210,1007.410
17.026,12.646,997.568
15.735,1.965,1014.740
3.370,-10.626,1007.511
6.410,18.963,1004.326
11.916,21.158,1007.018
10.622,12.463,1003.978
10.297,-6.260,1005.821
10.407,-22.674,1013.821
15.766,5.199,1010.391
6.764,26.384,1011.322
5.233,-4.892,1001.231
10.332,-8.629,1014.369
19.567,-1.331,1007.986
11.364,-6.674,1005.724
9.670,3.630,1021.642
16.211,21.288,1006.142
20.957,5.950,997.732
11.571,-13.990,998.702
9.942,-19.618,994.339
19.007,-14.481,991.040
23.456,25.130,982.878
16.411,20.169,977.984
18.624,-9.571,915.967
30.287,-13.528,841.377
58.648,-13.442,698.571
87.606,-31.431,560.435
92.903,-10.030,420.036
98.131,51.649,296.723
43.077,-16.901,223.369
-132.063,-204.641,278.532
-440.442,-386.554,502.008
-748.381,-408.232,705.351
-878.295,-233.828,953.391
-923.894,-97.634,1220.651
-975.280,-107.166,1353.863
-1002.824,-176.602,1420.340
-1026.995,-225.199,1514.790
-1003.489,-218.116,1542.751
-871.359,-137.815,1479.720
-783.848,-74.300,1352.876
-781.947,-71.066,1225.194
-744.775,-85.225,1095.386
-674.122,-102.357,1017.040
-619.051,-131.470,998.997
-590.553,-152.208,949.597
-532.374,-173.451,823.457
-443.171,-208.813,768.172
-345.525,-211.006,820.550
-299.603,-166.503,896.244
-309.116,-160.912,881.516
-311.152,-163.934,813.542
-257.598,-142.762,803.309
-182.029,-112.449,871.479
-138.576,-94.803,917.399
-123.419,-82.487,875.712
-142.005,-95.660,819.411
-101.693,-88.722,839.382
-33.908,-58.203,878.209
-13.573,-61.725,927.773
-22.661,-100.396,913.593
-34.565,-118.872,871.899
-16.855,-55.446,898.192
1.070,-31.857,978.006
11.837,-53.313,987.782
0.751,-79.187,951.787
0.753,-79.989,947.905
5.373,-50.357,985.687
4.291,-8.471,1001.004
18.793,-7.432,990.498
30.723,-24.840,948.709
17.867,-39.497,937.840
20.086,-24.507,967.773
39.477,41.677,961.536
46.445,82.479,957.272
42.659,35.436,953.542
24.460,-53.723,979.126
19.855,-64.357,996.390
18.187,-3.404,990.188
33.743,25.266,1001.859
31.445,-8.463,1007.286
18.231,-21.755,1006.523
17.162,-12.515,1003.865
22.629,0.193,997.121
29.223,19.886,993.429
23.422,16.489,1021.293
24.714,-3.513,1029.937
21.501,-2.529,1012.656
24.432,-4.650,998.814
24.402,-23.324,1007.756
16.545,-17.813,1024.611
15.149,-7.388,1011.974
26.198,-9.541,1003.241
22.663,-17.767,998.756
14.213,-23.274,1010.432
9.736,-4.717,997.767
11.632,5.030,1017.370
15.499,-4.768,998.198
16.616,-26.713,1011.440
2.322,-2.196,1007.670
5.228,3.638,1008.911
19.377,-18.202,1005.057
20.635,-13.010,994.234
14.247,-16.282,1004.162
15.000,-28.444,1007.744
17.654,-15.925,1012.478
21.180,9.381,1008.508
9.492,-0.236,1017.094
-1.174,-25.060,1018.663
8.252,0.643,1010.180
16.194,17.382,1008.539
11.232,-21.944,1015.318
4.740,-30.489,1006.332
19.012,0.387,999.960
18.897,13.467,997.136
10.759,-0.166,1001.837
3.014,-18.707,1006.850
3.710,-23.257,1010.299
10.750,-2.016,1006.295
18.121,-0.361,1000.524
14.718,-17.277,1001.548
2.143,-22.072,1018.063
5.637,-9.617,1009.426
21.715,-7.290,1003.346
23.133,-13.112,999.462
9.176,-2.775,1000.215
11.885,22.713,984.228
9.221,5.302,979.903
8.401,-25.848,947.601
17.005,-10.191,881.589
50.591,-8.338,753.770
41.475,-55.418,617.664
8.754,-33.593,548.741
63.154,83.428,335.359
116.345,143.353,212.155
23.651,77.517,121.699
-211.920,-132.293,249.937
-525.321,-393.089,549.260
-793.446,-509.267,749.631
-915.171,-306.406,888.113
-1079.701,1.430,1143.460
-1336.600,97.102,1602.868
-1335.993,-91.944,1830.366
-1168.476,-307.180,1757.047
-1063.918,-273.509,1596.645
-986.535,-91.283,1424.913
-903.186,2.760,1252.086
-795.299,-33.699,1115.160
-715.234,-129.576,990.664
-634.063,-213.280,878.637
-556.161,-198.216,826.169
-497.416,-146.545,706.173
-424.898,-116.787,680.847
-339.513,-90.386,793.512
-315.747,-66.107,841.927
-315.380,-70.734,766.723
-294.130,-97.490,736.836
-237.666,-116.413,805.510
-208.339,-123.818,888.822
-185.412,-80.487,901.456
-139.036,14.028,859.685
-119.941,16.683,829.853
-134.262,-83.901,897.457
-119.416,-130.545,943.121
-73.715,-71.741,948.399
-24.349,-22.586,886.756
-39.222,-28.530,887.026
-65.649,-25.977,935.038
-45.694,-0.749,950.970
6.534,-20.945,952.580
5.072,-68.559,926.424
-10.591,-21.523,897.934
-3.833,104.054,916.207
11.203,130.087,979.555
7.996,23.056,963.422
-3.789,-49.580,927.976
-5.068,-31.312,947.896
8.095,-5.883,1006.004
5.400,-15.026,1027.624
-11.250,-2.993,998.933
-19.008,34.096,970.737
-22.018,23.659,1011.317
-27.903,-40.455,1038.794
-25.534,-37.694,1032.175
-6.605,36.923,1013.622
-7.450,62.532,1000.373
-23.251,2.753,1009.450
-38.457,-23.613,996.165
-8.373,11.431,1020.537
5.397,29.909,1007.431
-15.350,15.504,1006.202
-24.037,-0.253,1011.284
-14.127,-26.253,997.026
-10.459,-26.987,989.477
-12.293,11.092,985.979
-21.373,9.659,997.600
-17.674,-9.624,1002.410
-17.959,-32.936,1013.297
-25.876,-31.478,1004.168
-32.352,-14.478,1012.304
-32.320,-34.251,997.974
-37.847,-68.203,1021.591
-30.444,-35.615,1018.524
-29.617,2.719,1019.376
-26.839,-9.024,1007.463
-34.913,-21.021,1008.035
-33.458,-38.329,1024.309
-24.754,-55.433,1024.018
-27.516,-32.830,1008.821
-35.702,-15.828,999.199
-32.691,-23.339,1005.559
-23.692,-14.722,998.186
-22.762,4.487,990.799
-30.817,-2.355,989.832
-35.877,-45.078,997.075
-30.089,-43.358,994.934
-26.692,-23.496,1002.528
-18.574,-6.196,991.192
-24.733,-19.101,1001.755
-26.565,-24.318,996.941
-31.319,-28.333,1008.897
-30.716,-30.922,1014.157
-38.858,-28.065,1014.069
-24.603,-15.221,1011.783
-23.172,-10.254,998.046
-22.805,-24.730,1019.269
-22.133,-28.571,1005.783
-34.883,-27.399,1003.619
-22.300,-21.099,1006.696
-32.572,-35.399,1008.260
-32.534,-36.602,1009.491
-27.992,-22.098,1001.671
-23.302,-22.185,1001.545
-26.002,-20.282,989.670
-33.000,-11.877,998.892
-21.054,-4.615,1003.270
-27.060,-15.116,1004.551
-36.390,-34.751,1006.487
-33.177,-40.801,1015.962
-24.315,-36.721,1014.610
-22.837,-18.817,1008.041
-22.211,-14.768,1003.228
-24.166,-23.356,1013.190
-20.200,-17.884,1001.119
-25.572,-21.973,1010.245
-27.239,-25.182,1007.291
-24.371,-19.248,1011.465
-24.432,-27.573,1013.029
-26.039,-32.225,1003.519
-12.055,-8.424,992.856
-13.268,-7.600,1000.065
-5.202,-21.856,993.494
-8.516,-23.566,983.425
-9.748,-23.031,1000.499
-22.967,-28.085,997.917
-22.722,-32.032,1017.360
-26.559,-40.807,1015.754
-27.390,-41.634,1019.291
-30.829,-32.141,1013.376
-26.734,-8.175,1005.293
-22.103,-16.239,1010.362
-27.960,-26.388,1005.306
-15.959,-13.166,1003.720
-12.905,-22.378,1002.302
-26.130,-41.044,1006.836
-16.777,-33.292,1008.804
-21.675,-30.694,1004.621
-30.078,-34.640,1013.942
-37.683,-40.479,999.026
-28.207,-30.500,1016.908
-19.573,-11.178,1000.968
-24.463,-14.138,995.645
-27.057,-27.110,990.065
-24.544,-39.573,988.019
-19.112,-38.526,989.366
-19.246,-26.729,1001.810
-16.123,-18.538,1009.295
-27.478,-23.967,1018.123
-29.144,-33.402,1015.060
-20.461,-29.038,1013.308
-11.089,-23.809,1006.347
-11.046,-26.246,1009.718
-19.457,-29.193,1008.692
-21.879,-28.149,1018.270
-22.774,-35.159,1008.792
-19.025,-35.770,1023.831
-18.108,-38.244,995.200
-20.565,-36.123,1022.531
-24.698,-20.475,978.963
-27.690,-20.086,1028.844
-19.901,-38.056,968.423
-17.214,-40.419,1068.318
-9.153,-12.742,813.201
