acc_x[mg],acc_y[mg],acc_z[mg]
-0.045,-5.556,941.607
-2.538,-21.180,1029.307
-10.054,-30.860,993.268
-3.235,-25.511,1024.474
0.331,-32.296,1005.877
-3.021,-19.790,1017.383
-4.315,-3.309,999.360
5.365,-8.754,1006.702
1.389,-31.986,993.924
-6.364,-34.742,1006.993
-11.812,-25.433,1003.034
-2.095,-17.054,1013.357
3.159,-27.776,1006.517
-2.137,-32.175,1010.300
-1.001,-15.547,1012.217
-3.668,-10.484,1017.232
-8.129,-14.276,1002.267
-7.768,-21.525,1014.230
-3.353,-28.091,1000.543
1.809,-27.149,1000.587
0.848,-18.313,1002.547
-9.679,-14.723,1006.180
-7.298,-17.811,994.604
-7.719,-21.594,1002.119
3.276,-28.433,1003.382
-6.864,-30.620,997.071
-1.915,-21.027,1010.916
-3.139,-20.752,1001.647
-1.342,-20.011,1007.488
0.132,-8.071,1000.835
-7.856,-24.315,1015.502
-7.259,-36.523,1015.156
-9.773,-20.888,1018.040
0.046,-3.471,1007.546
-4.370,-10.739,1014.158
-6.024,-29.478,1000.022
-2.091,-22.681,1009.876
-4.059,-10.769,1003.979
-10.934,-17.965,1003.106
-9.680,-31.432,999.046
-8.437,-15.576,1000.044
8.750,-14.598,1000.083
3.038,-20.626,987.965
-2.429,-18.028,998.532
0.198,-18.245,1002.422
-11.425,-27.860,1002.008
-13.590,-6.410,1005.642
-13.078,-4.677,999.680
-8.536,-27.683,1005.369
-8.748,-37.038,1012.489
-22.161,-37.066,1013.625
-14.528,-18.758,1017.923
-0.337,-8.817,1011.048
-10.083,-27.805,1002.716
-8.477,-23.986,1000.676
-4.885,-14.118,991.162
-8.904,-7.222,999.800
-13.765,-20.286,998.821
-14.502,-23.519,1000.080
0.673,-23.712,1006.380
-0.904,-36.229,1001.262
-16.916,-36.791,1012.804
-10.151,-24.653,1010.881
-7.296,-25.961,1013.276
-9.201,-34.188,1029.303
-15.652,-37.097,1041.491
-11.081,-32.025,1074.744
-18.738,-27.056,1091.174
-50.475,-39.030,1202.357
-91.223,6.213,1391.681
-166.435,89.482,1543.202
-204.012,211.618,1643.779
-206.273,255.751,1779.393
-226.566,-30.406,1713.116
-242.493,-373.257,1474.118
-178.762,-293.768,1148.758
-64.302,4.382,834.937
62.489,62.523,532.839
232.888,-82.095,269.256
463.482,-226.799,136.579
694.223,-324.862,-29.438
878.904,-376.113,-78.400
991.434,-243.450,-67.171
985.731,29.042,-6.608
952.882,185.706,59.968
893.722,126.932,132.433
781.379,11.216,284.903
662.573,15.193,472.472
575.344,72.750,624.235
545.679,95.796,686.380
511.685,95.713,781.649
481.023,67.303,860.779
474.130,32.570,921.677
462.379,-3.481,940.077
424.466,-45.559,875.635
410.742,-44.628,878.080
394.941,-8.908,930.102
363.849,-37.517,944.357
318.865,-78.665,986.054
257.596,-59.177,1017.908
227.726,28.064,1042.486
232.473,128.883,1035.101
252.534,131.198,1002.566
228.420,-22.219,1031.964
181.579,-165.758,1028.049
114.778,-112.792,993.895
110.319,25.834,1024.035
140.680,83.104,1051.299
124.654,-1.740,1039.203
94.062,-109.667,1020.982
61.335,-120.867,1010.339
31.448,-56.746,1050.801
53.169,21.389,1042.534
55.099,48.025,1031.520
33.451,-38.419,1029.169
12.752,-109.750,1043.723
-5.371,-51.574,1025.513
-2.794,25.379,1020.556
6.872,14.108,1073.051
-28.576,-51.668,1082.734
-57.467,-62.552,1088.732
-51.553,-5.885,1083.154
-27.117,11.418,1108.600
-30.150,-28.326,1103.815
-53.510,-46.995,1081.005
-44.179,-25.142,1062.264
-30.539,-5.252,1056.937
-19.203,-28.542,1034.414
-29.558,-56.698,1022.086
-18.305,-50.096,1002.778
-12.991,-45.441,989.403
-15.509,-51.007,983.569
-16.382,-49.609,988.484
-10.305,-48.561,991.180
-14.306,-58.325,978.639
-17.790,-47.697,1004.281
-19.647,-11.380,1005.892
-23.149,-1.308,1014.305
-5.256,-35.598,1013.257
-9.152,-71.439,1010.464
-17.598,-70.317,1009.243
-14.151,-12.296,1004.871
-1.980,-7.452,1016.507
-9.193,-51.247,1023.806
-14.320,-65.480,1012.600
-7.750,-41.087,1002.180
2.768,-29.833,998.572
7.289,-39.878,992.575
7.022,-49.407,997.694
2.799,-41.128,991.717
0.332,-36.506,1006.438
-1.200,-41.282,1004.967
-2.359,-42.737,1005.211
-0.652,-60.809,1016.530
10.142,-51.554,1004.395
13.492,-24.218,993.959
2.278,-21.414,1001.673
-3.716,-33.669,1007.001
-3.574,-44.069,1015.332
6.296,-54.066,1003.118
11.572,-46.989,1003.834
7.682,-34.962,1000.606
10.405,-30.332,995.556
9.348,-27.084,1007.248
12.315,-33.849,1008.574
13.243,-43.575,1000.104
9.755,-27.877,998.541
-1.960,-29.430,1008.688
5.606,-39.879,1001.299
19.579,-36.023,990.015
13.847,-31.946,992.345
2.965,-41.791,1001.394
8.528,-47.448,1007.336
7.722,-28.806,999.016
4.324,-24.859,1004.638
1.263,-30.291,1015.734
2.941,-34.199,1016.360
9.860,-26.220,999.082
16.336,-29.277,1003.860
14.664,-42.358,981.885
9.306,-38.702,1008.617
2.829,-34.339,1054.460
-27.538,-31.033,1182.045
-100.622,48.960,1467.171
-212.000,103.839,1757.051
-345.542,85.972,1872.582
-331.802,73.458,1899.442
-207.464,0.290,1800.427
-173.446,-117.704,1455.025
-149.504,-181.642,1091.746
-76.764,-214.048,713.390
72.169,-246.280,391.703
280.750,-184.371,214.947
495.052,-81.993,52.721
662.912,-15.383,-47.841
811.510,2.978,-107.990
924.086,-31.184,-128.689
960.036,-103.495,-70.906
920.770,-101.927,16.063
839.046,4.562,133.616
773.025,112.957,244.700
704.184,104.117,489.178
617.274,-10.622,684.373
538.180,-70.756,727.962
537.572,10.811,780.708
555.929,125.915,849.626
547.980,53.647,902.020
510.211,-102.890,909.326
462.146,-120.550,850.072
426.183,-28.923,860.168
414.061,41.422,878.537
403.657,8.128,955.832
339.888,-48.412,979.405
260.185,-49.910,952.518
232.962,-20.884,985.312
231.350,8.955,1041.555
215.415,24.926,1026.198
206.600,20.283,1023.716
149.552,-63.843,1032.475
92.969,-114.807,1025.796
100.352,-23.546,1052.423
131.665,50.617,1061.823
101.800,-34.768,1059.730
66.215,-138.129,1019.556
43.718,-124.088,1026.750
58.454,-51.121,1078.351
47.353,-16.208,1068.400
13.891,-1.452,1067.946
4.940,23.751,1067.282
5.094,-24.250,1111.824
5.472,-115.906,1097.915
-15.717,-92.155,1067.499
-13.860,17.053,1066.678
-10.440,54.794,1085.139
-9.639,-16.540,1067.770
-8.236,-50.657,1064.303
-7.445,-72.302,1045.376
-13.311,-65.586,1045.660
0.500,-27.282,1033.767
3.388,-33.968,1019.567
-0.486,-62.067,1016.155
-1.156,-80.931,1004.709
-7.396,-50.403,1023.735
-5.436,-5.117,1018.340
3.588,-37.336,997.707
-0.858,-90.015,1006.563
-9.192,-52.514,1005.807
2.286,-2.505,1002.699
16.168,-32.874,1020.533
4.634,-84.486,999.437
-5.871,-90.573,1005.931
19.950,-31.159,1005.698
24.140,22.198,1009.475
11.584,-3.265,1015.966
18.173,-60.579,988.168
14.535,-103.911,981.416
17.039,-78.323,982.413
3.053,-3.055,1000.802
17.391,7.846,1014.406
33.627,-31.515,984.481
16.114,-82.765,1011.259
10.248,-79.729,1009.545
7.893,-15.138,1003.095
21.461,6.282,1006.818
24.182,-38.614,997.912
16.614,-71.945,997.527
8.774,-41.389,1003.762
22.709,-2.908,1016.752
32.283,-14.531,1027.557
36.698,-55.017,1021.751
34.775,-65.412,993.920
37.705,-40.190,989.886
35.083,-47.921,1007.761
30.260,-52.325,1004.330
29.147,-41.012,1005.515
24.355,-46.769,1011.269
24.247,-56.403,998.598
18.561,-61.013,1004.347
20.997,-66.657,1005.284
28.635,-24.224,994.932
38.329,-0.173,991.421
24.608,-43.340,991.589
16.999,-62.902,1000.983
20.954,-57.005,1008.220
29.501,-32.590,1014.608
33.219,-35.459,1011.969
26.050,-63.016,1009.537
17.861,-54.197,1005.592
30.621,-34.223,1001.770
39.804,-41.467,1000.278
39.782,-31.348,1007.248
30.970,-53.279,1001.350
27.682,-69.329,992.816
38.831,-53.922,1005.054
45.957,-41.877,1021.387
36.126,-75.203,1037.423
21.429,-95.578,1066.704
42.047,-56.144,1083.948
40.385,-19.161,1237.417
-1.068,14.982,1427.772
-109.892,18.278,1585.948
-169.621,76.157,1753.189
-252.245,116.839,1930.266
-328.414,164.433,1905.760
-273.106,306.661,1605.972
-253.316,98.477,1206.765
-228.271,-383.650,725.828
-94.988,-605.582,314.540
187.574,-431.504,40.174
551.153,-131.044,-249.966
840.652,-11.135,-386.996
1026.718,-134.344,-408.930
1046.544,-239.314,-323.975
1024.135,-158.526,-214.238
989.554,-4.289,-126.043
898.104,51.272,42.679
751.810,-33.963,241.818
654.230,-101.951,465.916
609.214,-80.159,619.388
588.813,-36.574,704.468
548.777,-47.973,854.308
478.834,-93.668,932.202
452.942,-75.713,971.524
493.529,15.925,987.845
467.589,35.753,938.943
411.665,-62.130,953.061
364.580,-167.549,1014.516
341.579,-176.831,987.183
320.726,-43.285,998.109
318.070,51.148,1029.474
245.864,14.095,1019.840
203.420,-78.376,977.882
208.392,-75.196,1005.228
165.868,-5.350,1063.010
135.868,-1.275,1029.396
142.844,0.976,987.781
129.125,-62.935,1039.887
67.826,-162.547,1054.097
36.131,-79.029,1041.940
61.872,134.799,1065.911
77.820,190.208,1076.182
65.211,23.093,1074.250
49.597,-159.207,1083.116
15.672,-150.227,1056.790
25.392,-30.957,1075.045
71.589,73.914,1083.608
35.316,28.758,1075.816
22.564,-76.821,1051.586
26.368,-132.893,1031.972
23.342,-71.282,1036.351
32.972,33.233,1047.114
38.096,21.928,1047.525
34.544,-67.278,1021.125
17.070,-101.768,1007.612
32.843,-38.470,1026.223
53.805,5.196,1018.614
46.978,-28.747,1025.600
26.130,-81.151,1001.427
28.833,-67.194,1006.078
42.382,-23.541,1015.474
45.630,-13.364,1011.908
36.829,-35.140,997.141
31.369,-49.931,998.276
40.301,-44.423,998.590
43.938,-38.058,996.264
38.032,-53.915,1002.395
42.958,-52.117,1002.017
42.097,-53.121,1000.217
40.279,-46.144,998.673
41.005,-24.798,998.303
55.547,-30.860,1008.170
50.018,-54.245,1015.347
35.893,-70.023,1016.189
36.682,-40.775,1003.364
51.413,-43.446,1012.150
54.010,-50.672,990.728
40.821,-57.199,1002.589
54.997,-24.169,988.636
68.098,-11.176,1005.493
58.365,-55.075,1007.923
43.353,-78.971,1008.694
61.497,-54.590,1006.219
72.803,-19.369,1008.501
61.926,-29.585,1006.604
34.520,-57.121,1005.523
50.961,-76.142,1009.531
63.527,-54.702,999.720
51.663,-16.434,1015.483
55.366,-3.242,1003.581
73.735,-37.531,992.549
70.884,-69.034,992.834
37.590,-61.754,1000.214
49.724,-38.079,1008.631
63.506,-22.623,998.721
62.813,-21.146,997.132
57.164,-41.366,1001.958
48.324,-59.743,1011.203
55.020,-46.918,1002.259
71.710,-7.429,1000.011
73.641,-18.207,1014.701
53.935,-56.212,1015.717
46.364,-51.503,1020.805
60.847,-33.409,1005.219
67.236,-38.647,998.313
55.938,-54.467,1007.463
56.080,-53.707,998.216
65.670,-44.427,991.952
69.516,-28.109,991.862
61.041,-38.414,1010.525
57.823,-41.282,1012.699
49.539,-30.690,1012.672
58.350,-39.796,995.737
73.277,-60.405,999.240
63.818,-46.786,999.127
49.780,-25.294,1000.852
43.713,-39.354,1007.429
53.167,-39.225,1018.720
48.299,-44.478,1012.416
55.008,-52.406,1013.654
59.318,-45.499,994.377
67.667,-33.374,997.963
69.275,-40.532,998.611
55.722,-40.037,1020.415
54.506,-38.350,1009.609
35.408,-44.364,1023.649
35.745,-48.374,1010.832
45.529,-47.481,1012.939
55.195,-35.981,984.528
45.165,-25.400,1011.937
