acc_x[mg],acc_y[mg],acc_z[mg]
27.328,-23.424,992.592
24.888,-22.936,996.984
17.080,-18.544,998.936
16.592,-20.984,1004.792
19.032,-22.448,1003.328
32.696,-23.912,994.544
20.008,-25.376,997.472
17.080,-23.912,1006.744
17.568,-21.472,1001.864
21.960,-18.056,999.912
24.400,-19.520,998.448
20.496,-18.544,994.544
21.472,-18.544,1000.400
12.688,-20.008,998.936
9.760,-19.032,1002.840
20.008,-20.496,1004.792
18.056,-21.960,997.960
20.496,-17.568,997.960
18.544,-19.520,1003.816
14.640,-20.984,997.960
20.984,-16.592,999.912
18.056,-21.960,999.424
20.008,-23.912,1002.352
18.544,-22.448,996.496
19.520,-20.496,999.424
19.032,-21.960,999.912
23.424,-20.008,997.960
22.448,-18.544,997.472
22.448,-18.056,995.032
23.424,-19.520,1003.328
24.400,-21.960,998.936
20.008,-20.008,1001.864
20.008,-19.520,997.960
20.496,-18.056,1002.352
23.912,-17.568,998.448
20.008,-16.592,997.960
17.568,-21.960,999.912
19.520,-20.008,998.936
19.520,-19.032,997.960
21.472,-17.080,1000.888
20.496,-22.448,995.520
17.568,-21.960,998.936
17.080,-18.056,996.496
16.104,-22.448,1000.888
20.496,-20.008,998.936
18.544,-22.936,1000.400
16.592,-18.544,996.984
16.592,-19.520,998.936
15.616,-24.400,995.520
19.032,-24.888,1002.352
18.544,-18.544,999.912
15.616,-22.936,1000.888
20.008,-22.936,998.936
22.936,-16.104,997.472
19.032,-21.960,997.472
19.032,-15.616,995.032
19.520,-20.496,997.472
20.008,-21.472,998.936
19.520,-21.472,1002.352
18.544,-20.008,997.960
17.080,-18.544,996.496
19.032,-22.936,997.472
17.080,-25.376,997.472
22.936,-18.056,995.032
16.592,-21.472,999.424
17.080,-20.496,1006.256
20.008,-19.520,996.984
22.448,-20.984,999.912
19.032,-21.960,996.984
16.592,-20.008,997.472
19.520,-21.960,999.424
19.520,-20.496,994.056
19.520,-18.544,1001.376
18.544,-18.544,997.960
20.008,-20.008,998.936
21.472,-15.128,995.032
20.496,-23.912,999.424
18.056,-18.544,997.960
19.032,-21.472,1000.400
19.520,-21.960,998.448
13.664,-18.544,999.424
17.568,-24.888,1000.888
20.984,-20.984,997.472
22.936,-23.912,1001.864
21.960,-18.056,998.936
18.056,-22.936,996.984
18.544,-20.984,997.472
17.568,-22.448,998.936
21.472,-20.008,998.448
19.032,-22.936,999.424
18.056,-19.520,994.056
20.008,-19.032,1000.400
22.448,-13.664,996.984
20.496,-17.080,999.912
17.568,-22.448,993.568
20.496,-23.424,1000.400
16.592,-16.592,997.472
18.544,-22.448,999.424
19.032,-20.008,1001.864
17.568,-22.936,998.936
21.472,-20.008,999.912
22.448,-19.520,996.496
27.328,-19.032,996.984
22.936,-25.376,997.472
20.496,-17.080,995.520
19.032,-21.960,996.984
22.448,-20.496,1004.304
21.472,-20.496,998.936
21.960,-20.008,1001.864
15.128,-16.592,995.520
20.984,-18.056,998.936
22.936,-19.032,995.032
18.544,-23.912,1004.792
21.960,-21.960,995.032
21.960,-23.912,995.520
21.960,-19.520,996.008
20.008,-17.080,1003.328
19.032,-23.424,999.912
20.496,-21.472,1000.888
16.592,-21.960,1000.888
19.520,-20.496,1002.840
21.960,-22.448,996.496
15.128,-24.400,994.056
21.960,-20.008,999.424
14.152,-21.960,996.496
16.592,-22.936,999.424
20.008,-21.472,998.448
21.960,-19.520,1003.328
12.200,-17.568,1004.792
25.376,-20.008,997.960
21.960,-18.544,990.152
24.400,-21.960,996.496
27.816,-20.008,993.568
17.080,-18.544,999.912
18.056,-18.544,996.984
21.472,-20.984,999.912
21.472,-23.424,997.960
18.544,-19.032,1002.840
20.984,-20.984,1003.816
16.104,-22.936,996.496
17.080,-21.960,999.424
18.544,-18.056,998.936
23.424,-16.592,999.912
20.008,-20.984,991.128
147.376,-30.256,982.344
-19.520,-13.176,958.920
-23.424,-20.496,1023.824
37.088,-36.600,1002.352
-59.048,-20.984,995.032
1.952,22.936,978.928
-62.464,41.480,1032.608
142.984,-130.784,916.464
-296.216,-80.520,1416.176
-84.424,-22.448,991.616
-100.040,-36.600,1201.944
77.104,1.464,844.240
10.736,45.872,967.704
-43.432,36.600,889.136
-150.304,71.248,1040.416
0.976,99.552,890.112
-93.208,69.784,924.272
43.920,108.336,915.488
-138.592,110.288,958.920
40.016,148.352,895.968
48.312,114.192,1099.952
10.736,124.440,783.728
-60.512,106.384,1018.944
-46.360,99.552,1116.056
-19.520,95.648,941.352
20.984,110.776,986.736
30.744,108.336,975.512
8.296,114.192,1033.584
38.552,109.800,1018.456
42.456,103.456,990.152
28.792,102.968,987.224
5.856,97.600,985.272
59.048,103.944,1009.184
-4.880,126.392,1052.128
29.280,94.672,1039.440
45.872,96.624,1034.560
3.416,121.024,1061.400
-16.104,139.568,910.608
6.344,119.072,1037.976
17.568,113.704,961.848
-20.984,115.656,1018.456
-14.152,123.952,928.176
20.984,118.096,964.776
-19.032,147.376,954.528
37.576,145.424,950.136
-5.368,141.032,992.104
-5.368,112.240,952.576
-257.664,207.400,1044.320
59.536,104.920,996.008
86.864,124.928,945.744
177.144,88.328,976.000
36.112,135.664,965.264
-10.248,139.080,1015.040
-77.592,136.640,1112.640
38.064,114.192,971.120
-10.736,147.864,951.112
39.528,137.616,973.072
0.976,118.096,980.392
-72.712,105.408,1030.168
-38.064,155.672,1060.912
-42.456,145.424,1240.008
-71.736,143.960,1327.360
-13.176,171.288,1351.760
142.984,264.008,1264.896
36.112,343.064,816.424
-61.000,553.392,577.792
-49.776,666.120,341.112
-129.320,663.680,268.400
-67.344,786.168,19.032
19.032,947.696,-194.224
5.856,926.224,-190.808
-3.416,957.944,-221.552
20.496,986.248,-214.720
-48.312,964.288,-277.184
-11.712,998.448,-320.616
-5.856,1028.704,-281.088
-73.200,945.744,-274.256
-66.856,912.560,-293.776
8.296,1002.840,-337.208
-42.944,917.440,-302.560
-41.968,936.472,-288.896
-26.352,982.344,-305.488
-56.120,932.080,-304.024
-38.064,928.176,-298.656
-24.888,954.040,-288.408
-38.552,951.112,-302.560
-40.992,940.376,-305.000
-36.600,964.288,-300.120
-54.656,960.872,-291.824
-51.240,954.040,-277.184
-43.920,948.672,-299.632
-28.304,950.136,-305.976
-33.184,961.360,-289.384
-32.696,957.456,-276.208
-22.936,956.480,-298.168
-36.112,957.944,-302.560
-37.576,955.016,-292.312
-38.064,964.776,-288.408
-41.968,963.800,-270.840
-33.184,968.192,-285.480
-39.040,970.632,-284.016
-36.112,957.456,-278.648
-38.064,955.992,-300.608
-40.992,959.896,-286.456
-21.960,966.728,-335.744
-52.216,959.408,-281.576
-56.120,956.968,-190.320
-64.904,963.800,-77.592
-45.872,965.752,17.080
-64.904,955.016,74.664
-68.320,929.152,221.064
-39.528,951.600,283.040
-51.728,927.688,330.376
-66.368,884.256,458.232
-121.512,800.320,592.920
-122.976,802.760,564.128
-122.488,802.760,619.760
-111.264,810.080,565.104
-118.096,797.392,614.392
-106.384,781.288,567.056
-92.720,774.944,601.216
-111.264,699.792,660.752
-100.040,630.008,790.560
-106.384,605.608,890.112
-69.296,594.384,766.160
-104.920,492.880,881.816
-93.696,486.048,951.600
-123.952,500.688,894.504
95.160,500.200,721.264
-190.808,490.928,978.928
-195.688,494.344,853.512
-72.712,440.664,846.192
27.816,493.856,725.168
-21.960,478.728,734.928
-38.552,462.624,825.696
-10.736,464.576,866.200
10.248,398.208,1000.400
-42.944,414.312,747.128
34.648,302.560,1109.712
-135.664,384.544,952.088
5.368,306.464,931.592
-76.616,270.352,1003.816
-20.008,197.152,564.128
-1202.432,700.280,1812.920
-105.896,-188.368,638.792
-116.144,-355.264,549.000
-34.648,-909.144,564.616
119.072,-1291.736,1020.896
121.024,-1115.568,736.392
-12.688,-951.600,305.976
31.720,-1005.768,367.952
-35.624,-961.360,263.520
-57.096,-927.200,182.024
-53.680,-964.288,145.912
-35.624,-988.200,168.848
-73.688,-993.080,130.784
-54.168,-1014.064,189.832
-53.680,-957.456,105.408
-57.096,-979.416,104.920
-53.192,-1019.920,181.536
-54.656,-986.736,106.384
-61.488,-988.688,114.680
-41.480,-1000.888,134.688
-61.976,-980.880,103.456
-46.848,-994.056,124.928
-64.904,-993.568,106.872
-62.464,-991.128,108.824
-58.560,-980.392,101.016
-60.512,-1004.792,123.464
-63.928,-984.784,105.408
-64.416,-975.512,96.136
-49.776,-1000.888,119.072
-57.096,-987.712,113.216
-54.656,-986.248,100.040
-50.264,-987.224,119.072
-56.608,-990.640,106.384
-63.928,-982.832,99.552
-56.608,-1000.400,125.416
-59.536,-981.368,112.728
-63.440,-983.320,114.680
-60.512,-976.976,120.048
-58.072,-990.152,132.736
-56.608,-989.176,128.344
-52.704,-982.832,125.416
-58.072,-996.984,134.200
-67.344,-1014.064,143.472
-55.144,-1007.720,178.608
-72.712,-1013.576,212.768
-75.640,-986.248,236.192
-64.904,-990.640,265.472
-70.760,-996.496,340.136
-64.416,-979.904,380.152
-80.032,-942.816,440.664
-81.496,-923.296,486.048
-69.296,-848.144,544.120
-107.848,-786.656,644.648
-119.560,-719.800,708.576
-81.496,-692.472,804.712
-178.608,-575.352,795.928
-162.992,-520.696,871.080
-90.280,-377.224,945.744
-213.256,-231.312,823.744
-156.648,-173.728,887.672
-146.400,-124.440,963.312
-133.712,-45.384,887.184
-122.976,-68.808,902.312
-187.880,-81.008,960.872
-98.088,38.064,926.224
-146.888,52.216,1008.696
-179.096,69.784,1010.160
-203.496,83.936,954.528
-173.728,172.264,927.200
-155.672,180.072,961.360
-198.616,178.120,895.480
-151.280,208.376,906.704
-123.464,187.880,1020.408
-157.136,155.184,976.976
-146.400,145.424,1012.112
-145.912,157.624,991.128
-132.248,156.648,988.200
-159.088,174.216,976.488
-177.144,165.432,976.976
-156.648,172.752,952.088
-157.136,177.144,957.456
-171.776,169.336,971.120
-188.368,168.848,946.232
-177.632,179.096,970.144
-186.416,183.000,962.824
-172.264,159.576,998.448
-173.728,152.256,998.936
-171.776,167.872,990.152
-107.848,154.208,975.512
-9.760,120.536,1047.736
24.888,122.000,1085.312
12.200,183.976,984.296
222.040,101.016,1125.328
276.208,183.488,745.664
478.240,165.432,657.336
557.296,155.672,547.048
1318.576,-294.264,687.104
1116.544,-11.712,590.968
761.768,389.424,175.680
969.168,58.072,377.224
901.824,200.568,219.600
968.680,180.072,54.168
1013.576,102.968,82.960
1006.744,150.792,50.752
945.256,189.344,5.856
933.056,177.632,-5.368
985.760,158.600,47.824
978.928,160.064,60.024
1031.632,143.472,25.864
988.688,176.656,73.688
1020.408,135.176,11.712
995.032,128.832,12.688
973.072,137.616,55.632
931.592,168.848,46.848
1032.120,133.712,24.888
980.880,142.984,-0.488
985.760,140.544,69.296
1030.168,122.488,26.840
984.784,135.664,-13.664
983.808,149.328,-8.784
1035.048,128.344,28.304
999.912,149.816,-10.736
988.200,160.552,-20.984
1014.064,142.496,15.616
992.592,144.936,5.368
969.656,167.384,-26.352
1018.944,133.224,29.768
972.096,144.936,-2.928
966.240,156.160,-9.272
1022.360,141.520,30.744
1001.864,149.328,8.296
1009.672,154.696,9.272
1012.112,140.544,36.600
1045.296,129.320,104.432
939.888,192.272,37.576
1036.512,127.856,183.000
1001.864,126.392,232.776
924.760,188.856,227.408
854.976,213.256,339.160
855.952,185.928,434.808
810.080,167.384,461.648
825.696,149.816,635.864
771.040,162.016,625.616
753.472,164.944,639.768
706.624,164.944,679.296
641.232,182.512,738.832
582.672,177.632,798.368
575.840,189.344,858.880
461.160,222.040,814.472
467.504,162.016,945.256
383.080,192.760,894.504
306.952,190.808,947.696
287.920,207.888,940.376
214.720,162.016,976.976
149.328,158.112,981.368
103.456,172.264,1027.240
81.496,135.664,935.984
114.680,169.824,1012.112
89.304,153.232,970.144
78.568,186.904,958.920
156.160,156.160,1089.704
110.776,191.296,961.360
170.800,185.928,943.304
148.840,185.928,991.616
137.616,231.800,965.752
148.840,129.808,978.440
142.008,119.560,1029.680
122.000,175.192,1000.888
52.216,158.112,933.056
119.072,179.584,955.504
136.640,174.704,967.704
125.904,176.656,924.760
137.616,177.632,951.600
171.288,182.512,1006.744
142.496,203.496,964.776
116.632,142.008,958.432
124.928,166.896,979.904
121.024,182.024,981.856
127.368,142.008,1013.576
129.320,148.840,986.248
118.584,129.808,982.832
89.304,159.576,972.584
-22.448,85.400,999.424
-109.312,163.968,1083.360
-207.888,127.368,837.408
-517.280,215.208,660.264
-641.232,133.712,640.744
-733.952,131.760,309.880
-1264.408,161.528,646.112
-624.640,48.312,597.312
-1153.144,174.704,-18.544
-1073.600,90.280,162.992
-1021.384,161.528,-36.112
-1053.592,156.160,-67.344
-1137.040,122.976,-31.232
-1013.576,121.512,-25.376
-1015.040,121.024,-29.280
-1048.224,135.176,-36.600
-930.128,134.688,-50.264
-976.000,130.784,-27.328
-977.464,142.984,-61.000
-990.640,147.376,-34.648
-962.336,134.200,-38.552
-969.168,129.320,-58.560
-938.424,137.616,-73.200
-977.464,143.472,-23.424
-1004.304,145.424,-36.600
-963.312,135.664,-71.248
-986.736,143.472,-31.232
-973.560,140.544,-12.688
-966.728,146.400,-43.432
-976.000,144.448,-74.664
-997.960,146.400,-35.136
-977.952,149.328,-58.560
-1015.528,139.568,-36.112
-968.680,133.224,-30.744
-963.800,142.984,-54.656
-998.448,140.056,-78.080
-966.240,129.320,-62.952
-1016.992,153.232,-38.552
-985.760,145.424,-64.416
-967.704,144.448,-53.680
-952.576,141.032,-61.976
-984.784,153.720,-29.768
-1000.888,138.592,-53.192
-945.256,142.008,-77.592
-957.456,142.008,-25.864
-984.784,158.112,-45.872
-969.656,145.424,-39.040
-964.776,131.760,-61.976
-971.120,141.520,-71.736
-973.560,145.912,-56.608
-1004.792,145.424,-19.520
-955.016,147.376,-67.832
-1044.320,186.416,-9.272
-979.904,164.944,-66.368
-970.144,157.136,-6.344
-929.640,165.432,-15.128
-961.848,190.808,-15.128
-978.928,182.512,-2.440
-936.472,167.872,46.848
-985.272,179.584,20.008
-945.256,170.312,28.792
-1000.400,178.608,80.032
-956.480,185.928,-2.440
-1018.944,177.632,130.296
-990.152,175.680,90.280
-984.784,180.560,95.160
-962.824,196.176,122.000
-946.720,210.328,228.384
-960.384,204.472,115.656
-1035.048,225.456,270.840
-863.272,224.968,285.480
-935.984,241.560,223.016
-965.752,255.712,474.336
-655.872,249.856,331.840
-808.128,333.304,413.336
-687.592,303.536,522.160
-620.736,301.096,661.240
-544.608,310.856,661.728
-611.952,339.160,734.440
-554.368,303.536,791.536
-452.376,294.752,698.816
-516.792,289.872,843.752
-403.576,267.424,923.784
-386.008,255.224,883.280
-187.392,240.096,870.104
-190.320,195.688,996.008
-159.576,179.096,1015.528
-95.160,197.640,920.856
-88.816,184.464,977.952
-25.864,165.432,999.912
-19.032,158.600,1003.816
3.416,149.328,1008.208
11.712,163.968,941.840
46.360,133.224,1048.224
50.264,157.624,953.064
66.368,140.544,1050.664
145.912,140.544,987.224
135.664,151.280,948.184
100.040,151.280,968.680
138.592,116.632,1012.600
134.688,136.152,938.424
108.336,123.464,1009.672
116.144,143.960,934.032
141.032,125.416,998.448
136.640,124.440,953.552
89.792,147.864,991.616
156.160,128.344,987.224
160.552,131.272,998.936
119.560,144.448,970.144
143.960,128.344,1006.744
128.832,148.352,966.728
128.344,133.224,993.080
155.184,133.224,960.872
126.392,140.544,987.712
